Flexible Shaft
10/14/2015 12:36:44 PM
Sample Rate (Hz) = 2000.00
Effective Sample Rate (Hz) = 2000.00
Frequency (Hz)	Current (A)	Bode Magnitude (dB)	Bode Phase (deg) 

4.0000	0.8922	-4.3693	-90.5501
4.0000	0.8926	-4.3576	-89.8205
3.9999	0.8923	-4.3617	-90.3075
4.0000	0.8913	-4.3798	-90.7686
3.9998	0.8929	-4.3387	-90.7469
4.1994	0.9248	-4.6524	-98.2733
4.2002	0.9279	-4.6214	-96.0525
4.1994	0.9282	-4.5768	-98.3780
4.2011	0.9245	-4.6874	-94.0784
4.1994	0.9319	-4.5726	-98.4976
4.4003	0.9305	-4.5447	-98.2493
4.4001	0.9337	-4.4993	-98.8427
4.4000	0.9388	-4.4638	-98.6525
4.4002	0.9379	-4.4743	-98.4116
4.4001	0.9410	-4.4443	-98.6770
4.5995	0.8942	-4.1108	-104.2569
4.6001	0.8856	-4.4379	-101.7537
4.6001	0.8981	-4.2486	-101.7752
4.6001	0.9001	-4.1945	-101.9447
4.6001	0.8730	-4.5655	-101.9029
4.7998	0.8967	-2.8414	-105.5034
4.8000	0.8980	-2.8241	-104.9414
4.8001	0.8998	-2.7842	-104.6102
4.8000	0.8887	-2.8986	-105.0825
4.8001	0.8940	-2.8919	-104.9390
5.0002	0.8941	-1.1450	-108.4634
4.9997	0.8916	-1.2120	-108.5959
5.0000	0.9046	-1.0091	-108.6586
5.0001	0.9072	-0.9718	-108.4526
5.0000	0.9131	-0.8825	-108.7300
5.2001	0.9003	1.2387	-111.6039
5.1999	0.8975	1.2527	-112.0796
5.2001	0.8973	1.2431	-112.4117
5.2002	0.9037	1.3068	-111.8452
5.2001	0.9075	1.3518	-111.9675
5.4001	0.8561	4.8080	-119.3518
5.4000	0.8584	4.8615	-119.6219
5.4001	0.8608	4.8586	-119.3345
5.4001	0.8642	4.9077	-119.3574
5.4001	0.8642	4.9383	-119.4944
5.6000	0.6240	11.1584	-159.2688
5.6000	0.6129	11.2412	-160.6881
5.6000	0.6134	11.2357	-160.9582
5.6001	0.6186	11.2796	-161.1227
5.5999	0.6185	11.3325	-161.5876
5.8000	0.7051	9.4824	-219.1929
5.8000	0.7053	9.5363	-219.2269
5.8000	0.7091	9.5300	-219.4042
5.8000	0.7100	9.5726	-219.1103
5.8000	0.7130	9.5944	-219.1935
5.9997	0.8447	5.2768	-239.4292
6.0002	0.8435	5.3169	-239.0887
6.0000	0.8492	5.2654	-240.4069
6.0001	0.8484	5.3655	-239.1005
6.0002	0.8473	5.2973	-240.3285
6.2000	0.8891	1.5576	-248.7106
6.2000	0.8889	1.6738	-248.6801
6.2001	0.8890	1.6931	-247.7410
6.2000	0.8918	1.6666	-248.4837
6.2000	0.8942	1.7052	-248.3024
6.4000	0.9048	-1.4097	-253.5622
6.4001	0.9051	-1.3601	-252.8884
6.4000	0.9078	-1.3727	-253.0232
6.4000	0.9118	-1.3064	-252.4911
6.4001	0.9160	-1.2540	-252.4669
6.6000	0.9147	-3.8862	-255.8181
6.6001	0.9157	-3.8894	-256.3397
6.6001	0.9161	-3.8516	-255.3323
6.6001	0.9158	-3.8352	-254.9710
6.6000	0.9168	-3.8473	-255.0586
6.8000	0.9229	-5.9865	-258.3625
6.8001	0.9246	-5.9186	-256.1969
6.8001	0.9264	-5.8612	-256.2886
6.8001	0.9250	-5.9020	-257.7538
6.8000	0.9253	-5.9297	-258.4584
7.0000	0.9246	-7.7693	-258.5498
7.0001	0.9239	-7.7601	-258.7336
6.9999	0.9248	-7.7470	-257.2077
7.0002	0.9213	-7.7664	-258.6735
7.0001	0.9220	-7.8082	-258.9632
7.2001	0.9304	-9.3334	-259.8011
7.2001	0.9299	-9.3411	-259.7863
7.2001	0.9322	-9.3030	-259.4839
7.2001	0.9320	-9.3186	-259.7208
7.2001	0.9316	-9.2992	-259.4118
7.4001	0.9266	-10.8556	-260.8237
7.4000	0.9281	-10.8209	-260.3951
7.4001	0.9276	-10.8213	-260.4363
7.4001	0.9265	-10.8499	-261.0464
7.4001	0.9273	-10.8246	-260.6868
7.6001	0.9319	-12.1442	-261.6552
7.6001	0.9332	-12.1348	-261.6730
7.6000	0.9335	-12.1421	-262.0439
7.6000	0.9339	-12.1425	-262.4850
7.6000	0.9323	-12.1612	-262.5013
7.8001	0.9319	-13.3887	-261.2829
7.8000	0.9307	-13.4045	-261.8859
7.8001	0.9310	-13.3947	-261.6642
7.8001	0.9321	-13.4021	-262.9949
7.8001	0.9334	-13.3837	-262.3576
8.0000	0.9377	-14.4745	-263.5642
8.0001	0.9393	-14.4585	-263.5112
8.0001	0.9391	-14.4599	-262.1640
8.0000	0.9397	-14.4489	-262.9435
8.0001	0.9379	-14.4681	-263.4459
8.2001	0.9342	-15.5835	-264.0912
8.2001	0.9331	-15.5961	-264.0566
8.2001	0.9358	-15.5557	-263.9232
8.2000	0.9389	-15.5334	-264.0847
8.2001	0.9401	-15.5179	-264.3369
8.4001	0.9375	-16.5435	-264.6484
8.4001	0.9348	-16.5629	-265.1085
8.4001	0.9345	-16.5612	-264.8602
8.4001	0.9332	-16.5692	-264.8519
8.4002	0.9288	-16.6175	-264.5304
8.6000	0.9272	-17.5483	-265.3138
8.6001	0.9291	-17.5241	-264.8455
8.6000	0.9276	-17.5646	-265.7781
8.6001	0.9329	-17.4929	-265.4228
8.6000	0.9326	-17.4938	-265.5702
8.8000	0.9348	-18.3686	-266.1889
8.8000	0.9348	-18.3891	-266.2722
8.8001	0.9376	-18.3502	-265.9535
8.8001	0.9362	-18.3555	-265.6957
8.8001	0.9312	-18.4148	-265.8228
8.9999	0.9325	-19.2564	-266.5818
9.0000	0.9308	-19.2550	-265.8752
8.9999	0.9334	-19.2430	-266.4837
9.0002	0.9342	-19.2217	-266.3245
9.0000	0.9342	-19.2227	-266.0730
9.2001	0.9303	-20.0756	-266.9535
9.2000	0.9302	-20.0829	-267.1150
9.2000	0.9349	-20.0455	-267.0740
9.2002	0.9333	-20.0414	-266.7844
9.2001	0.9350	-20.0161	-266.9216
9.4000	0.9346	-20.8014	-267.4214
9.4001	0.9329	-20.8208	-267.2791
9.4001	0.9335	-20.8108	-267.5105
9.4001	0.9356	-20.7962	-267.7269
9.4000	0.9362	-20.7843	-267.6782
9.6000	0.9279	-21.6487	-268.3422
9.6000	0.9289	-21.6377	-268.1134
9.6001	0.9291	-21.6264	-268.0078
9.6000	0.9313	-21.6038	-268.3202
9.6001	0.9300	-21.6079	-267.9397
9.8001	0.9373	-22.2922	-268.4601
9.8000	0.9364	-22.3050	-268.5874
9.8000	0.9367	-22.3035	-269.0339
9.8000	0.9374	-22.2880	-268.7912
9.8000	0.9373	-22.2803	-268.5987
10.0001	0.9360	-23.0005	-268.9400
10.0003	0.9367	-22.9921	-268.5875
9.9999	0.9365	-22.9987	90.7268
10.0002	0.9347	-23.0155	-268.6064
9.9998	0.9345	-23.0196	90.9296
