Flexible Shaft
10/14/2015 12:49:21 PM
Sample Rate (Hz) = 2000.00
Effective Sample Rate (Hz) = 2000.00
Frequency (Hz)	Current (A)	Bode Magnitude (dB)	Bode Phase (deg) 

5.3001	0.9111	3.1326	-115.0884
5.3000	0.9170	3.2114	-115.3439
5.3001	0.9164	3.2148	-115.1968
5.3000	0.9179	3.2040	-115.4715
5.3000	0.9202	3.2423	-115.3241
5.3501	0.9035	4.0895	-117.1658
5.3500	0.9057	4.1061	-117.1915
5.3501	0.9069	4.1074	-116.9381
5.3500	0.9088	4.1448	-117.2099
5.3500	0.9076	4.1263	-117.1145
5.4001	0.8889	5.1892	-119.5228
5.4002	0.8877	5.1773	-119.5764
5.4000	0.8917	5.2023	-119.7951
5.4001	0.8936	5.2327	-119.7589
5.4000	0.8949	5.2679	-120.0401
5.4500	0.8663	6.5636	-123.8038
5.4500	0.8670	6.5829	-123.8134
5.4500	0.8666	6.5818	-123.8156
5.4500	0.8654	6.5824	-123.8076
5.4501	0.8663	6.5700	-123.7633
5.5002	0.8358	8.4284	-131.4986
5.5000	0.8352	8.4610	-131.7858
5.5001	0.8374	8.4814	-131.5988
5.5000	0.8351	8.4818	-131.7712
5.5000	0.8361	8.4484	-131.7672
5.5501	0.7478	10.1341	-142.5817
5.5502	0.7469	10.1552	-142.6144
5.5501	0.7486	10.1690	-142.7800
5.5501	0.7475	10.1847	-143.0549
5.5501	0.7481	10.2055	-143.1737
5.6000	0.6293	11.4884	-160.9230
5.6001	0.6278	11.5372	-161.2898
5.6001	0.6282	11.5657	-161.5062
5.6001	0.6284	11.5830	-161.7652
5.6000	0.6272	11.6051	-161.9685
5.6499	0.5706	11.8418	-182.7657
5.6500	0.5708	11.8583	-183.0037
5.6501	0.5706	11.8594	-183.1260
5.6500	0.5714	11.8631	-183.1934
5.6500	0.5722	11.8729	-183.2603
5.7000	0.6072	11.4495	-198.9157
5.7000	0.6075	11.4932	-198.7405
5.7000	0.6062	11.4938	-198.8276
5.7000	0.6079	11.5031	-198.8508
5.7000	0.6082	11.5113	-198.8544
5.7501	0.6724	10.6906	-210.7230
5.7500	0.6748	10.7159	-210.7672
5.7500	0.6755	10.7330	-210.7077
5.7500	0.6770	10.7489	-210.6944
5.7500	0.6784	10.7620	-210.7130
5.8000	0.7380	9.7622	-219.6220
5.8000	0.7402	9.7551	-219.6706
5.8001	0.7429	9.7752	-219.4506
5.8001	0.7436	9.7939	-219.4013
5.8000	0.7426	9.7989	-219.5169
5.8500	0.7890	8.7209	-226.6887
5.8500	0.7906	8.7005	-226.8734
5.8500	0.7918	8.7296	-226.5740
5.8501	0.7928	8.7355	-226.6905
5.8501	0.7923	8.7371	-226.7357
5.9001	0.8342	7.6567	-232.1874
5.9000	0.8338	7.6688	-232.0228
5.9000	0.8352	7.6682	-232.0004
5.9000	0.8354	7.6877	-231.7762
5.9001	0.8364	7.6978	-231.8731
5.9502	0.8532	6.5187	-235.9765
5.9500	0.8516	6.5090	-236.5212
5.9500	0.8507	6.5068	-236.4465
5.9501	0.8533	6.5274	-236.3122
5.9501	0.8525	6.5210	-236.5449
6.0000	0.8701	5.4652	119.8243
6.0000	0.8711	5.4943	-240.1293
6.0001	0.8689	5.4677	-240.2431
5.9999	0.8697	5.4620	-240.1396
6.0001	0.8729	5.4883	-239.9472
6.0500	0.8875	4.5179	-242.8554
6.0501	0.8854	4.4652	-243.2855
6.0500	0.8837	4.4492	-243.2303
6.0500	0.8848	4.4643	-243.1325
6.0500	0.8857	4.4821	-243.1293
6.1001	0.8962	3.5105	-245.7442
6.1000	0.8983	3.5081	-245.3370
6.1001	0.8974	3.5321	-245.4888
6.1001	0.8982	3.5202	-245.4390
6.1000	0.8999	3.5464	-245.4684
6.1501	0.9085	2.6225	-247.6095
6.1501	0.9081	2.6346	-247.3251
6.1501	0.9100	2.6430	-247.4096
6.1501	0.9093	2.6217	-247.6455
6.1500	0.9119	2.6598	-247.4268
6.2000	0.9110	1.7001	-249.4033
6.2000	0.9097	1.6705	-249.5913
6.2000	0.9112	1.7229	-249.4120
6.2000	0.9094	1.6997	-249.3327
6.2001	0.9090	1.6843	-249.3141
6.2500	0.9085	0.8168	-250.5166
6.2500	0.9106	0.8306	-250.7747
6.2501	0.9097	0.8356	-250.6235
6.2501	0.9123	0.8734	-250.2841
6.2501	0.9149	0.8520	-250.5881
6.3000	0.9234	0.1309	-251.4132
6.3000	0.9215	0.0854	-251.5989
6.3001	0.9222	0.1256	-250.9598
6.3001	0.9269	0.1354	-251.4963
6.3000	0.9280	0.1529	-251.7809
