Flexible Shaft
10/14/2015 12:14:38 PM
Sample Rate (Hz) = 2000.00
Effective Sample Rate (Hz) = 2000.00
Frequency (Hz)	Current (A)	Bode Magnitude (dB)	Bode Phase (deg) 

4.0001	0.2589	-7.3668	-88.3301
4.0010	0.2584	-7.3789	-84.5402
4.0000	0.2600	-7.3028	-87.7066
4.0002	0.2590	-7.3348	-449.1382
3.9999	0.2609	-7.1805	-84.8466
4.2000	0.2127	-8.6892	-94.5924
4.1994	0.2043	-9.0092	-96.1855
4.1992	0.2059	-8.8558	-94.8316
4.1997	0.2010	-9.1313	-93.5336
4.1999	0.2041	-8.9074	-91.6955
4.4000	0.2534	-7.3655	-96.2871
4.4007	0.2366	-7.7717	-92.0741
4.3995	0.2314	-8.1412	-95.9715
4.4019	0.2156	-8.9784	-91.7092
4.3998	0.2233	-8.8674	-99.0736
4.5999	0.2602	-7.4248	-98.3619
4.5999	0.2538	-7.6606	-99.7101
4.5995	0.2479	-7.9246	-99.8319
4.6001	0.2480	-7.9090	-98.1543
4.6005	0.2492	-7.9545	-99.0215
4.8006	0.2738	-6.8858	-101.2412
4.7994	0.2816	-6.5823	-103.2872
4.8002	0.2814	-6.6396	-101.1914
4.7997	0.2831	-6.5285	-103.7494
4.7995	0.2078	-9.2044	-149.5667
5.0022	0.2548	-6.0697	-156.8008
5.0014	0.2299	7.8123	-201.1945
5.0008	0.2522	-6.4887	-123.2722
5.1403	0.0567	-8.0956	-150.9182
4.8190	0.0498	-19.1248	-24.4890
5.2004	0.2400	-6.1503	-109.4861
5.2001	0.2445	-5.9412	-111.0550
5.1998	0.2440	-5.9659	-110.8031
5.2001	0.2455	-5.8771	-112.4250
5.2005	0.2417	-5.9444	-109.9302
5.4004	0.2384	-4.8730	-118.3033
5.3997	0.2397	-4.8751	-118.8731
5.4002	0.2393	-4.8442	-118.8461
5.3971	0.2441	-4.9746	-117.6757
5.3927	0.2957	-3.7798	-126.2682
5.5976	0.1443	7.0943	-129.0025
5.5888	0.2918	-5.7879	-107.2188
5.6000	0.3033	2.0915	-142.5977
5.6003	0.3164	3.7520	-141.7222
5.5982	0.3783	3.8320	-139.6906
5.8000	0.2814	8.7327	-194.6115
5.7997	0.2827	8.7723	-196.0536
5.8007	0.2670	8.6601	-196.0155
5.7997	0.2549	7.8889	-198.5118
5.7996	0.2887	8.1630	-192.7997
6.0000	0.3723	5.3144	-225.3676
5.9999	0.3737	5.3904	-224.4095
5.9999	0.3755	5.4311	-224.7978
6.0000	0.3767	5.4864	-224.7888
6.0001	0.3772	5.5084	-225.0342
6.2000	0.3987	1.3172	-235.6150
6.2000	0.3978	1.3059	-235.9478
6.2001	0.3963	1.3079	-235.5721
6.2000	0.3986	1.3568	-235.5201
6.2000	0.3991	1.3575	-235.7841
6.4017	0.6096	-1.3752	-234.8116
6.3990	0.6860	-1.6537	-249.2239
6.4001	0.7535	-1.5833	-250.2118
6.4000	0.8170	-1.5547	-248.5539
6.4002	0.8431	-1.6789	-252.3464
6.6000	0.8837	-3.9531	-256.0774
6.6001	0.8897	-3.8521	-255.8508
6.6000	0.8858	-3.8782	-255.4450
6.6003	0.8835	-3.9683	-260.0019
6.6002	0.7844	-4.8566	-237.0516
6.8001	0.8729	-6.1697	-258.0959
6.8000	0.8688	-6.2061	-257.7517
6.8000	0.8697	-6.1922	-257.3679
6.8001	0.8770	-6.0825	-257.0331
6.8001	0.8824	-6.0004	-256.0861
6.9999	0.8886	-7.8398	-258.3375
7.0000	0.8904	-7.8385	-259.1679
6.9999	0.8935	-7.7514	-257.2518
7.0001	0.8949	-7.7441	-259.5937
7.0000	0.8934	-7.7530	-258.2186
7.2002	0.8849	-9.5047	-260.1745
7.2001	0.8882	-9.4940	-259.9547
7.2000	0.8899	-9.4253	-259.8200
7.2000	0.8970	-9.3399	-259.2614
7.2000	0.8903	-9.4458	-259.8445
7.4001	0.8868	-10.9232	-260.6242
7.4000	0.8867	-10.9280	-261.0959
7.4001	0.8874	-10.8934	-260.4042
7.4001	0.8919	-10.8389	-260.1333
7.4001	0.8912	-10.8538	-260.4751
7.6001	0.8911	-12.2357	-262.0876
7.6000	0.8903	-12.2332	-261.9475
7.6002	0.8906	-12.2747	-260.0933
7.6005	0.8025	-12.9214	-262.0131
7.6001	0.8048	-13.2146	-271.7156
7.8001	0.8367	-14.0331	-261.9372
7.8000	0.8335	-14.0709	-260.9147
7.7999	0.8376	-13.9872	-262.8796
7.8000	0.8480	-13.8601	-260.1891
7.7999	0.8483	-13.9052	-264.1478
8.0001	0.8651	-14.8015	-262.6075
7.9999	0.8575	-14.8801	-262.0586
8.0002	0.8651	-14.8013	-262.9011
8.0000	0.8617	-14.8373	-260.7675
8.0001	0.8647	-14.7860	-263.8074
8.2000	0.8693	-15.7849	-263.4092
8.2001	0.8673	-15.8090	-263.4373
8.2001	0.8597	-15.8813	-262.5816
8.2000	0.8688	-15.7872	-263.0285
8.2000	0.8701	-15.7698	-263.4588
8.4001	0.8494	-16.9853	-263.1879
8.4000	0.8345	-17.1620	-264.0917
8.4002	0.8479	-16.9999	-263.4314
8.4000	0.8547	-16.9381	-264.1062
8.4001	0.8535	-16.9379	-263.7955
8.5986	0.8718	-17.9092	-260.3313
8.5996	0.8833	-18.0012	-262.8568
8.6002	0.8923	-17.9326	-264.0994
8.6002	0.9008	-17.8345	-264.3559
8.6001	0.8989	-17.8561	-264.7378
8.8001	0.9066	-18.6524	-265.9607
8.8001	0.9021	-18.7008	-265.6639
8.7998	0.8931	-18.8159	-266.4737
8.7999	0.8958	-18.7893	-266.2051
8.7999	0.8984	-18.7555	-266.3504
9.0003	0.9004	-19.5777	-266.1424
8.9998	0.8850	-19.6650	-268.8585
8.9999	0.8797	-19.3448	102.9481
8.9996	0.8903	-19.7515	-262.1431
8.9996	0.8537	-19.9943	-266.3994
9.2001	0.8829	-20.5543	-266.5713
9.2000	0.8857	-20.5263	-266.5921
9.2001	0.8711	-20.6917	-266.4047
9.2001	0.8789	-20.6359	-266.9682
9.2001	0.8895	-20.5001	-266.5444
9.4001	0.8973	-21.1896	-267.1513
9.4001	0.9041	-21.1188	-266.9968
9.4001	0.9074	-21.0856	-267.1874
9.4001	0.9015	-21.1499	-266.9015
9.4000	0.9037	-21.1210	-266.9832
9.6001	0.9091	-21.8264	-267.1850
9.6000	0.9116	-21.8071	-267.7250
9.6001	0.9126	-21.8037	-267.4517
9.6000	0.9148	-21.7766	-267.7262
9.6001	0.9185	-21.7442	-267.5969
9.7999	0.9161	-22.4890	-268.4683
9.8000	0.9131	-22.5168	-268.1265
9.8002	0.9067	-22.6196	-267.7062
9.7999	0.9110	-22.5877	-268.5347
9.8001	0.9136	-22.5427	-268.3190
10.0002	0.9189	-23.1930	-268.7993
10.0002	0.9189	-23.1927	-268.8789
10.0001	0.9226	-23.1599	-268.8695
10.0000	0.9190	-23.1950	-269.0035
10.0001	0.9166	-23.2022	-268.8062
