Flexible Shaft
10/7/2015 1:49:30 PM
Sample Rate (Hz) = 2000.00
Effective Sample Rate (Hz) = 2000.00
time (s)	Voltage (V)	Current (A)	Distal Tach (rad/s)	Motor Tach (rad/s)

3.9995	0.4619	-3.8241	-77.9929
4.0002	0.4606	-3.7710	-78.3837
3.9988	0.4586	-3.3825	-108.6330
4.0000	0.4617	-3.7523	-100.3822
4.0005	0.4608	-3.9421	-440.6449
4.1999	0.4575	-2.7829	-108.0494
4.1998	0.4573	-2.8334	-106.2910
4.1998	0.4589	-2.8179	-106.0710
4.2000	0.4584	-2.9334	-104.5011
4.2002	0.4594	-3.0334	-100.1979
4.3998	0.4585	-3.0139	-87.5968
4.4003	0.4592	-2.3466	-91.2259
4.3997	0.4587	-1.8330	-110.7139
4.4001	0.4575	-2.9819	-91.4108
4.4002	0.4595	-3.0070	-91.7447
4.6001	0.4609	-2.3179	-93.3424
4.6003	0.4600	-1.2239	-95.0302
4.6002	0.4576	-2.2429	-94.7059
4.6000	0.4575	-1.6758	-90.9413
4.6001	0.4574	-1.8310	-99.6420
4.8001	0.4586	-1.1552	-96.0210
4.7999	0.4576	-0.2972	-100.0338
4.7997	0.4561	-0.3597	-95.6004
4.7999	0.4599	-1.1718	-95.8080
4.8002	0.4569	-0.5804	-99.6776
5.0000	0.4604	0.7497	-96.1523
5.0004	0.4610	0.6226	-95.8140
5.0001	0.4613	0.5450	-96.4582
4.9999	0.4615	0.5013	-96.2141
5.0006	0.4603	0.5192	-101.2175
5.2001	0.4487	2.7339	-103.0479
5.1997	0.4543	2.7147	-100.4198
5.2004	0.4535	2.9650	-100.7102
5.1993	0.4504	3.2089	-95.6929
5.2005	0.4548	3.5419	-101.0036
5.4000	0.4480	6.7584	-101.7968
5.4000	0.4429	6.2709	-107.7910
5.4000	0.4429	6.9907	-104.8850
5.3998	0.4431	6.3629	-107.3201
5.3999	0.4417	6.6424	-103.6176
5.5999	0.3110	14.5201	-145.6086
5.6005	0.3114	14.6244	-143.6543
5.5999	0.3083	14.5332	-145.2097
5.5998	0.3069	14.5101	-146.8483
5.5999	0.3094	14.6398	-145.1955
5.8004	0.3830	12.7305	-232.3349
5.8008	0.3785	12.8795	-230.2534
5.8008	0.3783	12.9275	-231.1932
5.8005	0.3794	12.8930	-232.5138
5.8002	0.3805	12.8899	-233.6652
5.9992	0.4486	6.2628	-262.3059
6.0012	0.4444	6.8837	-257.3862
6.0012	0.4460	6.8273	-257.6937
5.9992	0.4479	6.8611	-254.0129
5.9994	0.4475	7.0123	-251.5021
6.2002	0.4489	1.8582	-264.2575
6.2007	0.4550	2.0373	-268.4212
6.1994	0.4582	2.0280	-262.5401
6.2007	0.4568	2.2631	-267.0583
6.2001	0.4524	1.9589	-265.2024
6.4001	0.4549	-1.5068	-262.6736
6.3998	0.4589	-1.8536	-279.8371
6.4005	0.4597	-1.0977	-266.1527
6.3997	0.4605	-1.1317	-268.2094
6.4002	0.4561	-1.2858	-273.3915
6.5997	0.4543	-3.6089	-255.7150
6.6001	0.4533	-3.9284	-265.2177
6.6003	0.4570	-4.0911	-270.7057
6.6000	0.4555	-4.4035	-275.9022
6.5998	0.4533	-4.3588	-279.7852
6.7997	0.4560	-5.8648	-260.0615
6.7997	0.4558	-6.2535	-280.5207
6.7995	0.4535	-6.9105	-295.5020
6.7999	0.4555	-6.2909	-283.7721
6.8003	0.4576	-6.4513	-280.3337
7.0005	0.4558	-8.2442	-270.4794
6.9998	0.4605	-8.2871	82.7167
6.9991	0.4559	-7.5884	-243.3014
7.0009	0.4558	-8.3920	-273.0683
6.9997	0.4613	-8.0621	-274.9828
7.1998	0.4573	-9.8303	-273.3624
7.1995	0.4603	-9.7217	-270.2180
7.2000	0.4559	-10.0278	-275.4862
7.1998	0.4602	-9.9102	-278.8264
7.2007	0.4577	-9.5281	-270.8522
7.4000	0.4576	-9.9989	-200.7288
7.4000	0.4595	-9.9890	-32.1548
7.4001	0.4598	-9.9493	-154.1462
7.4004	0.4561	-9.9660	-246.2940
7.4001	0.4563	-10.0036	-60.8066
7.6003	0.4587	-9.9610	-285.8476
7.5999	0.4593	-9.9787	-163.9908
7.6003	0.4600	-9.9813	-6.5392
7.6001	0.4571	-9.9670	-219.4174
7.5997	0.4549	-9.9826	-87.1731
7.8002	0.4570	-10.0115	-16.9853
7.7995	0.4560	-10.0143	-30.9864
7.8003	0.4563	-9.9951	-12.8084
7.7998	0.4526	-10.0030	-303.5967
7.7999	0.4574	-10.0112	-273.3106
8.0003	0.4555	-9.9853	-320.2950
7.9998	0.4560	-9.9938	-2.3533
7.9997	0.4550	-9.9974	-48.7345
8.0000	0.4563	-9.9970	-79.8674
8.0002	0.4560	-9.9727	-100.2246
8.2010	0.4554	-10.0006	-14.4596
8.1991	0.4552	-9.9901	-135.1219
8.2010	0.4506	-10.0062	-249.8395
8.1995	0.4564	-10.0013	-6.7307
8.2008	0.4562	-9.9973	-103.0064
8.4004	0.4529	-9.9856	-73.0839
8.4001	0.4542	-9.9665	-278.8288
8.3995	0.4565	-9.9650	-112.0726
8.3993	0.4582	-9.9652	-287.8168
8.3994	0.4578	-9.9766	-102.2425
8.5998	0.4532	-9.9852	-248.9437
8.6001	0.4584	-9.9783	-162.8876
8.5999	0.4618	-9.9523	-66.2009
8.6008	0.4523	-9.9741	-326.1021
8.5998	0.4569	-9.9742	-250.6719
8.7999	0.4567	-9.9822	-269.1417
8.8005	0.4476	-10.0055	-282.8370
8.7996	0.4478	-10.0092	-262.2949
8.8007	0.4531	-9.9736	-262.6669
8.7997	0.4565	-9.9910	-266.7851
9.0009	0.4497	-10.0014	-291.6588
9.0005	0.4600	-10.0105	-29.4398
8.9988	0.4533	-10.0301	-137.1171
9.0007	0.4516	-10.0034	-230.8254
9.0002	0.4599	-10.0053	-312.3743
9.2009	0.4569	-10.0221	-66.1861
9.2006	0.4571	-9.9995	-264.2967
9.1996	0.4553	-10.0187	-88.7098
9.1987	0.4534	-10.0077	-256.6135
9.1991	0.4534	-9.9877	-54.1462
9.4002	0.4543	-9.9973	-167.4441
9.4009	0.4563	-9.9760	-73.0414
9.4006	0.4547	-9.9891	-317.7782
9.3998	0.4514	-10.0076	-204.2062
9.4003	0.4530	-9.9911	-87.7180
9.5997	0.4544	-10.0088	-204.5351
9.6003	0.4544	-9.9890	-196.9937
9.6002	0.4586	-9.9699	-155.4825
9.6003	0.4543	-10.0187	-121.3324
9.5998	0.4515	-10.0068	-88.0770
9.8001	0.4534	-9.9916	-200.0696
9.8005	0.4595	-9.9770	-245.9864
9.8003	0.4533	-9.9688	-288.6990
9.7995	0.4545	-9.9923	27.2220
9.7998	0.4531	-9.9985	-38.9487
9.9998	0.4582	-9.9819	-7.9564
10.0002	0.4513	-9.9900	-113.3942
9.9999	0.4524	-10.0087	-223.7750
10.0001	0.4541	-10.0062	-10.6047
9.9997	0.4553	-10.0368	-221.1328
