Flexible Shaft
10/7/2015 1:36:06 PM
Sample Rate (Hz) = 2000.00
Effective Sample Rate (Hz) = 2000.00
time (s)	Voltage (V)	Current (A)	Distal Tach (rad/s)	Motor Tach (rad/s)

4.0014	0.4462	-4.3522	-453.1224
4.0017	0.4443	-4.4282	-70.1598
4.0019	0.4446	-4.2995	-70.9348
3.9991	0.4453	-3.8283	-121.2876
3.9986	0.4454	-3.4998	-120.8701
4.1994	0.4492	-3.3211	-85.5365
4.1996	0.4483	-3.5131	-77.4940
4.1999	0.4473	-3.6004	-85.4359
4.2006	0.4459	-3.4916	-105.6535
4.2008	0.4447	-3.3904	-114.1774
4.4008	0.4446	-3.1678	-83.6868
4.3989	0.4497	-1.9393	-110.2056
4.4007	0.4455	-3.3719	-86.8949
4.3995	0.4481	-3.1249	-92.7171
4.4003	0.4487	-2.3272	-97.3670
4.6001	0.4506	-2.3302	-93.2907
4.5995	0.4528	-1.3789	-98.3472
4.5994	0.4524	-2.4080	-91.4924
4.5994	0.4556	-1.1022	-103.3815
4.5995	0.4519	-2.4290	-91.1258
4.8003	0.4466	-0.9661	-100.5306
4.7998	0.4541	-0.1251	-98.0573
4.8004	0.4462	-0.7477	-90.7990
4.7994	0.4554	-1.1337	-95.0880
4.8005	0.4484	-1.2890	-97.8002
4.9997	0.4573	1.1349	-99.3572
4.9997	0.4581	1.1887	-99.1877
4.9999	0.4588	1.2725	-98.5304
4.9997	0.4606	1.3695	-99.4592
4.9998	0.4587	1.3732	-101.4893
5.2005	0.4498	2.8787	-98.0690
5.1996	0.4476	2.7503	-104.0368
5.1998	0.4464	2.7880	-98.9599
5.2000	0.4460	3.2422	-96.7461
5.2003	0.4516	3.2178	-103.9478
5.4002	0.4450	6.4032	-104.3684
5.4007	0.4434	6.6240	-102.3037
5.4007	0.4425	6.4519	-106.5853
5.4009	0.4440	6.7883	-103.9864
5.4007	0.4426	6.5338	-108.5528
5.5998	0.3051	14.4942	-146.0780
5.6007	0.3078	14.5959	-143.8307
5.5996	0.3053	14.5385	-143.8109
5.5999	0.3068	14.4691	-145.1017
5.6005	0.3062	14.4837	-146.2645
5.7991	0.3811	12.6195	-236.6676
5.7993	0.3749	12.7511	-234.0611
5.7995	0.3759	12.9126	-234.0947
5.7994	0.3790	12.8651	-234.4250
5.7996	0.3756	12.8484	-234.5658
5.9997	0.4459	6.1611	-262.4894
6.0004	0.4425	7.0480	-248.9428
6.0009	0.4478	7.0272	-254.9197
6.0000	0.4495	6.8838	-258.9752
5.9995	0.4447	6.8150	-259.2094
6.2000	0.4465	1.5027	-266.9739
6.1998	0.4474	2.3130	-263.4653
6.2003	0.4484	1.7085	-266.0741
6.1997	0.4541	2.1646	-264.4526
6.1999	0.4517	2.0637	-267.9133
6.4000	0.4495	-1.2341	-260.7152
6.3997	0.4566	-1.4078	-271.1088
6.3998	0.4527	-1.3727	-275.3971
6.4002	0.4525	-0.9307	-261.7837
6.3998	0.4564	-1.0491	-265.7055
6.6004	0.4538	-4.0347	-274.6762
6.6005	0.4545	-4.1442	-271.4647
6.6003	0.4529	-3.9074	-268.0340
6.6003	0.4539	-3.7780	-269.9517
6.5997	0.4504	-4.4936	-276.5864
6.7991	0.4504	-5.5229	-256.5851
6.8006	0.4538	-6.9199	-312.5398
6.7997	0.4506	-6.1361	-251.9381
6.7998	0.4519	-6.0730	-256.5644
6.8008	0.4497	-6.2898	-270.7517
6.9999	0.4552	-8.4867	-274.2762
7.0003	0.4568	-8.1755	-275.2507
6.9994	0.4540	-7.5193	-245.5116
7.0004	0.4526	-8.2543	-269.0087
7.0005	0.4587	-8.4298	-277.1194
7.1996	0.4589	-9.6718	-274.4797
7.2002	0.4547	-9.7363	-272.1956
7.2005	0.4554	-9.7058	-273.7831
7.2005	0.4553	-9.6264	-271.4484
7.1998	0.4567	-9.5628	-270.3355
7.4001	0.4546	-9.9991	-212.0476
7.4001	0.4563	-9.9934	-196.9292
7.4001	0.4552	-10.0013	-176.4191
7.4000	0.4537	-10.0014	-107.5892
7.4001	0.4580	-9.9744	-68.9772
7.6004	0.4585	-9.9655	-161.0477
7.5998	0.4548	-10.0100	-201.0260
7.5998	0.4515	-10.0026	-224.8049
7.6000	0.4570	-9.9917	-279.9249
7.6003	0.4615	-9.8196	-230.2215
7.7999	0.4532	-9.9858	111.3759
7.8009	0.4607	-9.9839	-343.3353
7.7998	0.4518	-9.9900	-96.7199
7.7999	0.4530	-9.9925	-145.7973
7.8010	0.4599	-9.9777	-210.0422
7.9993	0.4538	-9.9924	-212.7109
8.0011	0.4537	-9.9529	-25.0050
8.0011	0.4583	-9.9703	-217.7554
8.0007	0.4542	-9.9764	-7.4265
7.9997	0.4573	-9.9603	-187.0919
8.2014	0.4528	-9.9884	-198.2604
8.1997	0.4591	-7.6101	-338.7119
8.1996	0.4537	-9.9736	-339.2910
8.1997	0.4538	-9.9605	-211.0405
8.2001	0.4556	-9.9679	-107.4681
8.3994	0.4568	-9.9723	-19.1733
8.3995	0.4562	-9.9805	-17.7969
8.3999	0.4562	-9.9665	-350.7231
8.4003	0.4560	-9.9629	-314.4046
8.4008	0.4552	-9.9793	-265.7226
8.6008	0.4529	-9.9512	-38.8028
8.5997	0.4537	-9.9629	-84.4728
8.5997	0.4594	-9.9637	-132.8313
8.6004	0.4545	-9.9638	-171.0543
8.6002	0.4570	-9.9605	-209.2688
8.8000	0.4552	-9.7273	-290.9753
8.8002	0.4577	-9.6919	-359.8472
8.8000	0.4592	-9.8186	-146.0568
8.8005	0.4590	-9.8910	-277.0155
8.7999	0.4594	-9.8645	-70.9239
8.9994	0.4522	-9.9228	-19.7045
9.0004	0.4605	-9.9220	-260.2044
8.9996	0.4528	-9.9118	-124.4001
9.0011	0.4584	-9.9019	-316.3174
8.9995	0.4532	-9.9384	-165.2974
9.1997	0.4569	-9.9175	-84.8122
9.2001	0.4580	-9.9218	-17.9871
9.2001	0.4596	-9.9253	-297.9351
9.2003	0.4611	-9.9041	-206.9114
9.2007	0.4605	-9.9259	-137.4188
9.4000	0.4527	-9.9394	-86.9123
9.4005	0.4578	-9.9190	-89.1842
9.3993	0.4569	-9.9539	-113.6559
9.4002	0.4582	-9.9463	-118.5474
9.4004	0.4545	-9.9454	-174.2005
9.6007	0.4575	-9.9693	-319.1622
9.6005	0.4625	-9.9420	-84.4609
9.6008	0.4563	-9.9536	-159.1993
9.6001	0.4619	-9.9455	-287.3915
9.6005	0.4562	-9.9693	-347.5916
9.8007	0.4586	-9.9334	-92.9297
9.8003	0.4573	-9.9871	-276.7834
9.7997	0.4611	-9.9201	-122.5128
9.8010	0.4598	-9.9219	-263.3995
9.8000	0.4582	-9.9672	-27.4318
9.9998	0.4621	-9.8910	-49.5089
9.9996	0.4611	-9.9229	84.5798
10.0002	0.4613	-9.9350	-156.6749
10.0002	0.4613	-9.9498	-45.9985
10.0002	0.4612	-9.9611	-323.3244
